File: applications/micromorphic_damage_tensile_rod/out_displacement_stored_energy.txt
0, 0, 0.0000000000e+00
1, 0.006, 0.000359739
2, 0.012, 0.00143586
3, 0.018, 0.00321909
4, 0.024, 0.00569419
5, 0.03, 0.00884013
6, 0.036, 0.0126304
7, 0.042, 0.0170337
8, 0.048, 0.0220138
9, 0.054, 0.0275309
10, 0.06, 0.0335414
11, 0.066, 0.0399992
12, 0.072, 0.0468559
13, 0.078, 0.0540615
14, 0.084, 0.0615652
15, 0.09, 0.0693158
16, 0.096, 0.0772625
17, 0.102, 0.0853551
18, 0.108, 0.0935449
19, 0.114, 0.101785
20, 0.12, 0.11003
21, 0.126, 0.118237
22, 0.132, 0.126367
23, 0.138, 0.134382
24, 0.144, 0.142249
25, 0.15, 0.149937
26, 0.156, 0.157418
27, 0.162, 0.164668
28, 0.168, 0.171664
29, 0.174, 0.178389
30, 0.18, 0.184828
31, 0.186, 0.190968
32, 0.192, 0.196799
33, 0.198, 0.202314
34, 0.204, 0.207508
35, 0.21, 0.212379
36, 0.216, 0.216924
37, 0.222, 0.221146
38, 0.228, 0.225048
39, 0.234, 0.228632
40, 0.24, 0.231905
41, 0.246, 0.234874
42, 0.252, 0.237544
43, 0.258, 0.000350404
44, 0.264, 0.000365146
45, 0.27, 0.000380303
46, 0.276, 0.00039587
47, 0.282, 0.000411842
48, 0.288, 0.000428217
49, 0.294, 0.000444988
50, 0.3, 0.000462156