File: applications/micromorphic_damage_tensile_rod/out_displacement_dissipated_energy.txt
0, 0, 0.0000000000e+00
1, 0.006, 0.0000000000e+00
2, 0.012, 0.0000000000e+00
3, 0.018, 0.0000000000e+00
4, 0.024, 0.0000000000e+00
5, 0.03, 0.0000000000e+00
6, 0.036, 0.0000000000e+00
7, 0.042, 0.0000000000e+00
8, 0.048, 0.0000000000e+00
9, 0.054, 0.0000000000e+00
10, 0.06, 0.0000000000e+00
11, 0.066, 0.0000000000e+00
12, 0.072, 0.0000000000e+00
13, 0.078, 0.0000000000e+00
14, 0.084, 0.0000000000e+00
15, 0.09, 0.0000000000e+00
16, 0.096, 0.0000000000e+00
17, 0.102, 0.0000000000e+00
18, 0.108, 0.0000000000e+00
19, 0.114, 0.0000000000e+00
20, 0.12, 0.0000000000e+00
21, 0.126, 0.0000000000e+00
22, 0.132, 0.0000000000e+00
23, 0.138, 0.0000000000e+00
24, 0.144, 0.0000000000e+00
25, 0.15, 0.0000000000e+00
26, 0.156, 0.0000000000e+00
27, 0.162, 0.0000000000e+00
28, 0.168, 0.0000000000e+00
29, 0.174, 0.0000000000e+00
30, 0.18, 0.0000000000e+00
31, 0.186, 0.0000000000e+00
32, 0.192, 0.0000000000e+00
33, 0.198, 0.0000000000e+00
34, 0.204, 0.0000000000e+00
35, 0.21, 0.0000000000e+00
36, 0.216, 0.0000000000e+00
37, 0.222, 0.0000000000e+00
38, 0.228, 0.0000000000e+00
39, 0.234, 0.0000000000e+00
40, 0.24, 0.0000000000e+00
41, 0.246, 0.0000000000e+00
42, 0.252, 0.0000000000e+00
43, 0.258, 0.0000000000e+00
44, 0.264, 0.0000000000e+00
45, 0.27, 0.0000000000e+00
46, 0.276, 0.0000000000e+00
47, 0.282, 0.0000000000e+00
48, 0.288, 0.0000000000e+00
49, 0.294, 0.0000000000e+00
50, 0.3, 0.0000000000e+00